#Wavelength[nm] Reflectance[%]
# Thorlabs P01 Protected Silver mirror coating (from https://www.thorlabs.com/newgrouppage9.cfm?objectgroup_id=903)
230.00  32.05956
240.00  12.79264
250.00  16.80748
260.00  24.80127
270.00  33.42666
280.00  39.33633
300.00  21.60199
310.00  21.39887
320.00  36.95072
330.00  66.33795
340.00  83.17188
350.00  84.81982
360.00  83.30160
370.00  81.65155
380.00  82.19792
390.00  85.45037
400.00  88.71807
410.00  91.25043
420.00  93.09852
430.00  94.34188
440.00  95.12392
450.00  95.73861
460.00  96.07818
470.00  96.27313
480.00  96.43713
490.00  96.52764
500.00  96.55209
510.00  96.50419
520.00  96.42279
530.00  96.37185
540.00  96.33421
550.00  96.34123
560.00  96.21805
570.00  96.07214
580.00  95.90400
590.00  95.85272
600.00  95.75384
610.00  95.73035
620.00  95.72144
630.00  95.71270
640.00  95.71157
650.00  95.72349
660.00  95.68295
670.00  95.66181
680.00  95.58834
690.00  95.57215
700.00  95.39356
710.00  95.20549
720.00  95.09069
730.00  95.14138
740.00  95.17128
750.00  95.26094
760.00  95.30012
770.00  95.34554
780.00  95.39596
790.00  95.47471
800.00  95.53123
810.00  95.78107
820.00  95.94608
830.00  95.96554
840.00  95.97104
850.00  96.11861
860.00  96.31097
870.00  96.34213
880.00  96.46647
890.00  96.51111
900.00  96.60538
910.00  96.63673
920.00  96.65579
930.00  96.71370
940.00  96.78773
950.00  96.84723
960.00  96.88112
970.00  96.90266
980.00  96.93297
990.00  96.97016
1000.00  97.01422
1010.00  97.05934
1020.00  97.09801
1030.00  97.15207
1040.00  97.20977
1050.00  97.24538
1060.00  97.26743
1070.00  97.29012
1080.00  97.33862
1090.00  97.37035
1100.00  97.40065
1110.00  97.43418
1120.00  97.45601
1130.00  97.49647
1140.00  97.53817
1150.00  97.56533
1160.00  97.57860
1170.00  97.60988
1180.00  97.63232
1190.00  97.64257
1200.00  97.68021
1210.00  97.70709
1220.00  97.70758
1230.00  97.75507
1240.00  97.79703
1250.00  97.80677
1260.00  97.83409
1270.00  97.86271
1280.00  97.88515
1290.00  97.91034
1300.00  97.91726
1310.00  97.92720
1320.00  97.95990
1330.00  97.97902
1340.00  97.96649
1350.00  97.98208
1360.00  97.98515
1370.00  98.01334
1380.00  98.04948
1390.00  98.06116
1400.00  98.06910
1410.00  98.08687
1420.00  98.09829
1430.00  98.11657
1440.00  98.11229
1450.00  98.13352
1460.00  98.16698
1470.00  98.17837
1480.00  98.20194
1490.00  98.19862
1500.00  98.17338
1510.00  98.18355
1520.00  98.19344
1530.00  98.19331
1540.00  98.21376
1550.00  98.21452
1560.00  98.19184
1570.00  98.18979
1580.00  98.21208
1590.00  98.21166
1600.00  98.23722
1610.00  98.27239
1620.00  98.29176
1630.00  98.29956
1640.00  98.31581
1650.00  98.31914
1660.00  98.34766
1670.00  98.34928
1680.00  98.35663
1690.00  98.38561
1700.00  98.37451
1710.00  98.39212
1720.00  98.39579
1730.00  98.35314
1740.00  98.36053
1750.00  98.33332
1760.00  98.32271
1770.00  98.31282
1780.00  98.34846
1790.00  98.34118
1800.00  98.31576
1810.00  98.33046
1820.00  98.32699
1830.00  98.34221
1840.00  98.33144
1850.00  98.33888
1860.00  98.39184
1870.00  98.38167
1880.00  98.41867
1890.00  98.42162
1900.00  98.42724
1910.00  98.45394
1920.00  98.48641
1930.00  98.50565
1940.00  98.51619
1950.00  98.53280
1960.00  98.49712
1970.00  98.51597
1980.00  98.51520
1990.00  98.55771
2000.00  98.53192
2010.00  98.55147
2020.00  98.54165
2030.00  98.58507
2040.00  98.49855
2050.00  98.47861
2060.00  98.48048
2070.00  98.47655
2080.00  98.44520
2090.00  98.43077
2100.00  98.42801
2110.00  98.40172
2120.00  98.39905
2130.00  98.37327
2140.00  98.35844
2150.00  98.33982
2160.00  98.42947
2170.00  98.42142
2180.00  98.40447
2190.00  98.44215
2200.00  98.37181
2210.00  98.43821
2220.00  98.40268
2230.00  98.34804
2240.00  98.33822
2250.00  98.45523
2260.00  98.48460
2270.00  98.49701
2280.00  98.43358
2290.00  98.40782
2300.00  98.49192
2310.00  98.57100
2320.00  98.43042
2330.00  98.45456
2340.00  98.45347
2350.00  98.46225
2360.00  98.53161
2370.00  98.42774
2380.00  98.48028
2390.00  98.37900
2400.00  98.39566
2410.00  98.50038
2420.00  98.35610
2430.00  98.41117
2440.00  98.45449
2450.00  98.31859
2460.00  98.45216
2470.00  98.20266
2480.00  98.67474
2490.00  98.43298
2500.00  98.51074
2510.00  98.50345
2520.00  98.47551
2530.00  98.33077
2540.00  98.53713
2550.00  98.36720
2560.00  98.37758
2570.00  98.37050
2580.00  98.34861
2590.00  98.32834
2600.00  98.39774
2609.79  98.54432
2619.73  98.57427
2629.66  98.55443
2639.59  98.58479
2649.52  98.56535
2659.71  98.54557
2669.63  98.57652
2679.54  98.55765
2689.73  98.53844
2699.63  98.56993
2709.53  98.55159
2719.70  98.58293
2729.59  98.56493
2739.48  98.59710
2749.63  98.57895
2759.51  98.61144
2769.66  98.59362
2779.53  98.57642
2789.67  98.55892
2799.53  98.54203
2809.66  98.52485
2819.51  98.50826
2829.63  98.49138
2839.47  98.47509
2849.58  98.45851
2859.41  98.44251
2869.52  98.42622
2879.61  98.41009
2889.43  98.39451
2899.52  98.37867
2909.60  98.36297
2919.41  98.34781
2929.48  98.33239
2939.55  98.31712
2949.34  98.30237
2959.40  98.28738
2969.45  98.27253
2979.50  98.25781
2989.54  98.24324
2999.58  98.22880
3009.34  98.21486
3019.37  98.20069
3029.39  98.18666
3039.41  98.17276
3049.42  98.15900
3059.43  98.14537
3069.43  98.13188
3079.43  98.11851
3089.43  98.10528
3099.41  98.09218
3109.40  98.07921
3119.37  98.06637
3129.34  98.05366
3139.31  98.04107
3149.27  98.02862
3159.23  98.01629
3169.45  98.00379
3179.39  97.99172
3189.34  97.97977
3199.27  97.96794
3209.20  97.95624
3219.39  97.94438
3229.31  97.93293
3239.22  97.92160
3249.40  97.91012
3259.30  97.89903
3269.20  97.88806
3279.36  97.87695
3289.24  97.86622
3299.39  97.85536
3309.27  97.84486
3319.14  97.83448
3329.27  97.82398
3339.12  97.81383
3349.24  97.80356
3359.36  97.79341
3369.20  97.78361
3379.30  97.77369
3389.13  97.76411
3399.22  97.75442
3409.30  97.74485
3419.11  97.73560
3429.18  97.72625
3439.25  97.71702
3449.31  97.70789
3459.10  97.69907
3469.15  97.69017
3479.19  97.68137
3489.22  97.67268
3499.25  97.66409
3509.27  97.65562
3519.03  97.64743
3529.04  97.63916
3539.04  97.63099
3549.04  97.62293
3559.03  97.61498
3569.02  97.60712
3579.00  97.59936
3589.23  97.59155
3599.20  97.58400
3609.16  97.57654
3619.11  97.56918
3629.06  97.56192
3639.00  97.55476
3649.20  97.54755
3659.13  97.54057
3669.05  97.53369
3678.97  97.52691
3689.13  97.52008
3699.04  97.51348
3708.93  97.50697
3719.08  97.50042
3728.96  97.49409
3739.10  97.48773
3748.97  97.48158
3759.09  97.47540
3768.95  97.46942
3779.06  97.46342
3788.90  97.45761
3798.99  97.45178
3809.08  97.44604
3818.90  97.44049
3828.98  97.43491
3839.04  97.42943
3849.10  97.42402
3858.90  97.41879
3868.94  97.41355
3878.98  97.40839
3889.01  97.40331
3899.03  97.39831
3909.05  97.39339
3919.06  97.38855
3928.80  97.38386
3938.80  97.37917
3949.04  97.37448
3959.02  97.36994
3968.99  97.36548
3978.96  97.36109
3988.92  97.35677
3998.87  97.35253
4008.81  97.34835
4019.00  97.34419
4028.93  97.34016
4038.85  97.33620
4048.76  97.33230
4058.92  97.32842
4068.82  97.32466
4078.96  97.32092
4088.85  97.31729
4098.72  97.31373
4108.84  97.31019
4118.70  97.30676
4128.81  97.30335
4138.90  97.30000
4148.74  97.29676
4158.82  97.29354
4168.89  97.29038
4178.70  97.28732
4188.76  97.28429
4198.81  97.28131
4208.85  97.27839
4218.88  97.27554
4228.65  97.27277
4238.67  97.27003
4248.67  97.26735
4258.67  97.26472
4268.66  97.26215
4278.65  97.25963
4288.62  97.25717
4298.83  97.25474
4308.79  97.25239
4318.74  97.25009
4328.68  97.24784
4338.61  97.24564
4348.78  97.24348
4358.70  97.24138
4368.60  97.23934
4378.75  97.23733
4388.64  97.23538
4398.76  97.23347
4408.64  97.23161
4418.75  97.22980
4428.60  97.22804
4438.69  97.22632
4448.53  97.22465
4458.60  97.22302
4468.66  97.22143
4478.72  97.21989
4488.52  97.21840
4498.56  97.21694
4508.59  97.21553
4518.60  97.21416
4528.61  97.21283
4538.61  97.21155
4548.60  97.21030
4558.59  97.20909
4568.56  97.20793
4578.52  97.20680
4588.47  97.20571
4598.66  97.20466
4608.59  97.20365
4618.52  97.20267
4628.43  97.20172
4638.58  97.20083
4648.48  97.19996
4658.61  97.19913
4668.48  97.19833
4678.59  97.19757
4688.45  97.19683
4698.54  97.19614
4708.61  97.19549
4718.44  97.19484
4728.50  97.19425
4738.55  97.19369
4748.58  97.19316
4758.37  97.19263
4768.39  97.19216
4778.40  97.19172
4788.39  97.19131
4798.38  97.19092
4808.36  97.19056
4818.32  97.19023
4828.52  97.18995
4838.46  97.18967
4848.39  97.18942
4858.32  97.18919
4868.47  97.18902
4878.37  97.18884
4888.50  97.18872
4898.38  97.18859
4908.49  97.18851
4918.35  97.18842
4928.43  97.18839
4938.27  97.18835
4948.33  97.18836
4958.38  97.18840
4968.42  97.18845
4978.45  97.18852
4988.24  97.18859
4998.24  97.18870
5008.53  97.18888
5018.35  97.18900
5028.17  97.18915
5037.99  97.18932
5048.56  97.18962
5058.37  97.18982
5068.19  97.19004
5078.00  97.19028
5088.56  97.19066
5098.38  97.19094
5108.18  97.19123
5117.99  97.19153
5128.55  97.19198
5138.36  97.19232
5148.17  97.19268
5157.97  97.19305
5168.53  97.19356
5178.33  97.19396
5188.13  97.19437
5197.93  97.19480
5208.48  97.19537
5218.28  97.19582
5228.08  97.19629
5237.87  97.19677
5248.42  97.19740
5258.21  97.19790
5268.01  97.19841
5278.55  97.19907
5288.34  97.19961
5298.13  97.20016
5307.92  97.20071
5318.45  97.20142
5328.24  97.20200
5338.02  97.20258
5347.81  97.20318
5358.34  97.20392
5368.12  97.20454
5377.90  97.20516
5388.43  97.20593
5398.21  97.20657
5407.99  97.20721
5417.76  97.20786
5428.29  97.20866
5438.06  97.20933
5447.83  97.21000
5458.36  97.21082
5468.13  97.21150
5477.89  97.21219
5488.41  97.21303
5498.18  97.21373
5507.94  97.21443
5517.71  97.21514
5528.22  97.21600
5537.98  97.21672
5547.74  97.21744
5558.25  97.21831
5568.01  97.21903
5577.77  97.21976
5588.27  97.22064
5598.03  97.22138
5607.78  97.22212
5618.28  97.22300
5628.03  97.22374
5637.78  97.22449
5648.28  97.22538
5658.03  97.22612
5667.77  97.22687
5678.27  97.22776
5688.01  97.22851
5697.75  97.22926
5708.25  97.23015
5717.99  97.23090
5727.72  97.23165
5738.21  97.23254
5747.95  97.23328
5757.68  97.23403
5768.17  97.23492
5777.90  97.23566
5787.63  97.23640
5798.11  97.23728
5807.84  97.23802
5817.57  97.23875
5828.04  97.23963
5837.77  97.24036
5847.49  97.24108
5857.96  97.24195
5867.68  97.24267
5878.15  97.24353
5887.87  97.24424
5897.59  97.24495
5908.05  97.24580
5917.77  97.24650
5927.48  97.24720
5937.94  97.24803
5947.65  97.24872
5958.11  97.24954
5967.82  97.25022
5977.53  97.25089
5987.98  97.25169
5997.69  97.25236
6008.14  97.25315
6017.84  97.25380
6027.54  97.25445
6037.99  97.25522
6047.69  97.25586
6057.38  97.25648
6067.83  97.25723
6077.52  97.25785
6087.96  97.25859
6097.65  97.25919
6108.09  97.25991
6117.78  97.26049
6127.47  97.26107
6137.90  97.26177
6147.59  97.26234
6158.02  97.26302
6167.70  97.26356
6177.38  97.26410
6187.81  97.26476
6197.49  97.26528
6207.91  97.26592
6217.59  97.26642
6228.01  97.26704
6237.68  97.26753
6247.35  97.26801
6257.77  97.26860
6267.44  97.26906
6277.85  97.26963
6287.52  97.27007
6297.93  97.27062
6307.59  97.27104
6317.26  97.27146
6327.66  97.27197
6337.32  97.27237
6347.73  97.27286
6357.38  97.27324
6367.78  97.27371
6377.44  97.27406
6387.84  97.27451
6397.49  97.27485
6407.88  97.27527
6417.53  97.27558
6427.18  97.27589
6437.57  97.27628
6447.22  97.27656
6457.60  97.27692
6467.25  97.27718
6477.63  97.27752
6487.27  97.27776
6497.65  97.27807
6507.29  97.27828
6517.67  97.27858
6527.30  97.27876
6537.67  97.27903
6547.31  97.27920
6557.68  97.27944
6567.31  97.27958
6577.68  97.27979
6587.30  97.27991
6597.67  97.28010
6607.29  97.28019
6617.65  97.28035
6627.27  97.28042
6637.63  97.28055
6647.25  97.28059
6657.61  97.28070
6667.22  97.28072
6677.57  97.28080
6687.19  97.28079
6697.54  97.28084
6707.15  97.28081
6717.49  97.28083
6727.10  97.28077
6737.44  97.28077
6747.05  97.28068
6757.39  97.28065
6766.99  97.28054
6777.33  97.28048
6787.66  97.28040
6797.26  97.28025
6807.59  97.28014
6817.18  97.27997
6827.51  97.27983
6837.11  97.27963
6847.43  97.27946
6857.02  97.27923
6867.34  97.27904
6876.93  97.27878
6887.25  97.27856
6897.57  97.27832
6907.15  97.27802
6917.46  97.27775
6927.04  97.27743
6937.35  97.27713
6946.93  97.27677
6957.23  97.27645
6967.54  97.27610
6977.11  97.27571
6987.42  97.27533
6996.98  97.27491
7007.28  97.27451
7016.85  97.27406
7027.14  97.27362
7037.44  97.27317
7047.00  97.27268
7057.29  97.27220
7066.85  97.27168
7077.14  97.27117
7087.43  97.27064
7096.98  97.27008
7107.26  97.26952
7116.81  97.26893
7127.09  97.26835
7137.37  97.26774
7146.92  97.26711
7157.19  97.26648
7167.47  97.26583
7177.01  97.26515
7187.28  97.26447
7196.81  97.26377
7207.08  97.26306
7217.35  97.26234
7226.88  97.26159
7237.14  97.26083
7247.40  97.26006
7256.93  97.25927
7267.19  97.25847
7276.71  97.25766
7286.97  97.09918
7297.22  97.07289
7306.74  97.03624
7316.99  96.98147
7327.24  96.96933
7336.75  96.90418
7346.99  96.77040
7357.24  96.67689
7366.75  96.60641
7376.98  96.55030
7387.22  96.50377
7396.73  96.46396
7406.96  96.42901
7417.19  96.39771
7426.69  96.36923
7436.92  96.34295
7447.15  96.31842
7456.64  96.29548
7466.87  96.27381
7477.09  96.25323
7487.31  96.23359
7496.80  96.21477
7507.01  96.19663
7517.23  96.00773
7526.71  95.93750
7536.92  95.89702
7547.13  95.86856
7556.61  95.84627
7566.82  95.82759
7577.02  95.81133
7587.23  95.79686
7596.70  95.78388
7606.90  95.77218
7617.09  95.76182
7626.56  95.75300
7636.75  95.74532
7646.95  95.73858
7657.14  95.73260
7666.60  95.72728
7676.78  95.72244
7686.97  95.71804
7697.15  95.71401
7706.60  95.71035
7716.78  95.70691
7726.96  95.64893
7737.14  95.64846
7746.58  95.64802
7756.76  95.64752
7766.93  95.64700
7777.09  95.64647
7786.53  95.64599
7796.70  95.64543
7806.86  95.64486
7817.02  95.64427
7826.46  95.64373
7836.61  95.64311
7846.77  95.64248
7856.92  95.64184
7867.07  95.64118
7876.50  95.64057
7886.65  95.63988
7896.79  95.63918
7906.94  95.63847
7916.36  95.63781
7926.50  95.63707
7936.64  95.63631
7946.77  95.63555
7956.91  95.63476
7967.04  95.63397
7976.45  95.63323
7986.58  95.63241
7996.70  95.63157
8006.83  95.63073
8016.95  95.62986
8026.35  95.62907
8036.47  95.62818
8046.59  95.62728
8056.71  95.62637
8066.82  95.62544
8076.93  95.62450
8086.32  95.62364
8096.43  95.62267
8106.54  95.62170
8116.64  95.62071
8126.75  95.61970
8136.85  95.61869
8146.94  95.61766
8156.32  95.61672
8166.42  95.61567
8176.51  95.61461
8186.60  95.61353
8196.69  95.61245
8206.78  95.61135
8216.86  95.61024
8226.23  95.60922
8236.31  95.60809
8246.39  95.60695
8256.46  95.60579
8266.54  95.60463
8276.61  95.60345
8286.69  95.60226
8296.76  95.60106
8306.82  95.59985
8316.17  95.59874
8326.23  95.59751
8336.30  95.59627
8346.36  95.59502
8356.41  95.59376
8366.47  95.59248
8376.52  95.59120
8386.58  95.58991
8396.63  95.58860
8406.67  95.58729
8416.72  95.58596
8426.76  95.58463
8436.09  95.58341
8446.13  95.58205
8456.17  95.58069
8466.20  95.57932
8476.24  95.57794
8486.27  95.57655
8496.30  95.57515
8506.33  95.57374
8516.35  95.57329
8526.38  95.57285
8536.40  95.57240
8546.42  95.57195
8556.44  95.57150
8566.45  95.57105
8576.46  95.57060
8586.48  95.57015
8596.49  95.56970
8606.49  95.56925
8616.50  95.56880
8626.50  95.56835
8636.50  95.56790
8646.50  95.56745
8656.50  95.56700
8666.50  95.56655
8676.49  95.56610
8686.48  95.56566
8696.47  95.56522
8706.46  95.56478
8716.44  95.56434
8726.42  95.56390
8736.40  95.56347
8746.38  95.56304
8756.36  95.56261
8766.33  95.56218
8776.30  95.56176
8786.27  95.56134
8796.24  95.56093
8806.21  95.56052
8816.17  95.56011
8826.13  95.55971
8836.09  95.55931
8846.05  95.55892
8856.01  95.55853
8865.96  95.55815
8875.91  95.55777
8885.86  95.55740
8896.52  95.55689
8906.46  95.55653
8916.41  95.55618
8926.35  95.55583
8936.28  95.55549
8946.22  95.55516
8956.15  95.55484
8966.09  95.55452
8976.02  95.55421
8985.94  95.55391
8995.87  95.55362
9005.79  95.55333
9016.42  95.55291
9026.34  95.55264
9036.26  95.55239
9046.17  95.55214
9056.08  95.55190
9065.99  95.55168
9075.90  95.55146
9085.81  95.55126
9095.71  95.55106
9106.32  95.55072
9116.22  95.55055
9126.12  95.55039
9136.01  95.55025
9145.90  95.55011
9155.79  95.54999
9165.68  95.54988
9176.27  95.54963
9186.16  95.54955
9196.04  95.54948
9205.92  95.54943
9215.80  95.54939
9225.67  95.54937
9236.25  95.54921
9246.12  95.54921
9255.99  95.54924
9265.85  95.54928
9275.72  95.54934
9286.28  95.54925
9296.14  95.54934
9306.00  95.54945
9315.85  95.54958
9325.71  95.54973
9336.26  95.54974
9346.11  95.54992
9355.95  95.55012
9365.80  95.55035
9375.64  95.55060
9386.18  95.55070
9396.02  95.55099
9405.85  95.55130
9415.68  95.55163
9426.21  95.55182
9436.04  95.55220
9445.87  95.55260
9455.69  95.55302
9465.51  95.55347
9476.03  95.55378
9485.85  95.55428
9495.66  95.55480
9506.17  95.55519
9515.98  95.55577
9525.79  95.55637
9535.59  95.55701
9546.09  95.55750
9555.89  95.55819
9565.69  95.55891
9575.49  95.55966
9585.98  95.56027
9595.77  95.56108
9605.56  95.56192
9616.04  95.56263
9625.83  95.56354
9635.61  95.56448
9646.08  95.56529
9655.86  95.56629
9665.63  95.56733
9675.41  95.56841
9685.87  95.56936
9695.64  95.57051
9705.40  95.57170
9715.86  95.57276
9725.62  95.57403
9735.38  95.57533
9745.83  95.57651
9755.58  95.57790
9766.03  95.57917
9775.78  95.58064
9785.52  95.58215
9795.96  95.58355
9805.70  95.58515
9815.44  95.58680
9825.87  95.58833
9835.61  95.59008
9845.34  95.59187
9855.76  95.59355
9865.49  95.59544
9875.91  95.59722
9885.63  95.59922
9895.35  95.60126
9905.76  95.60321
9915.47  95.60536
9925.88  95.60741
9935.59  95.60968
9945.29  95.61201
9955.69  95.61424
9965.39  95.61669
9975.78  95.61904
9985.48  95.62161
9995.87  95.62409
10005.56  95.62679
10015.25  95.62956
10025.63  95.63224
10035.31  95.63514
10045.69  95.63796
10055.37  95.64101
10065.73  95.64397
10075.41  95.64717
10085.77  95.65028
10095.44  95.65359
10105.80  95.65677
10115.46  95.66010
10125.82  95.66330
10135.48  95.66666
10145.13  95.67004
10155.48  95.67328
10165.13  95.67669
10175.47  95.67995
10185.12  95.68338
10195.45  95.68668
10205.78  95.68998
10215.42  95.69345
10225.75  95.69678
10235.38  95.70027
10245.70  95.70363
10255.33  95.70715
10265.64  95.71053
10275.27  95.71407
10285.58  95.71749
10295.20  95.72105
10305.50  95.72449
10315.11  95.72809
10325.41  95.73155
10335.71  95.73502
10345.31  95.73866
10355.60  95.74216
10365.21  95.74581
10375.49  95.74934
10385.09  95.75302
10395.36  95.75657
10405.64  95.76014
10415.23  95.76385
10425.50  95.76744
10435.08  95.77119
10445.35  95.77480
10455.61  95.77843
10465.19  95.78220
10475.44  95.78586
10485.01  95.78966
10495.26  95.79333
10505.51  95.79702
10515.07  95.80085
10525.32  95.80457
10535.56  95.80829
10545.11  95.81216
10555.34  95.81590
10565.58  95.81966
10575.12  95.82356
10585.35  95.82734
10594.89  95.83126
10605.11  95.83507
10615.33  95.83888
10625.54  95.84271
10635.07  95.84667
10645.28  95.85051
10655.48  95.85437
10665.01  95.85836
10675.21  95.86224
10685.40  95.86612
10694.92  95.87014
10705.11  95.87405
10715.30  95.87797
10725.48  95.88189
10734.99  95.88594
10745.17  95.88989
10755.34  95.89384
10764.84  95.89791
10775.01  95.90189
10785.18  95.90586
10795.34  95.90984
10804.83  95.91395
10814.99  95.91795
10825.15  95.92196
10835.30  95.92596
10844.77  95.93010
10854.92  95.93412
10865.07  95.93815
10875.21  95.94218
10885.35  95.94622
10894.81  95.95037
10904.94  95.95442
10915.07  95.95847
10925.20  95.96252
10935.32  95.96657
10944.77  95.97073
10954.89  95.97479
10965.00  95.97884
10975.11  95.98290
10985.22  95.98695
10995.33  95.99100
11004.76  95.99515
11014.86  95.99920
11024.96  96.00324
11035.05  96.00727
11045.14  96.01130
11055.23  96.01532
11064.65  96.01942
11074.73  96.02343
11084.81  96.02742
11094.88  96.03139
11104.96  96.03535
11115.03  96.03929
11125.09  96.04321
11135.16  96.04710
11145.22  96.05097
11154.61  96.05490
11164.66  96.05872
11174.72  96.06251
11184.76  96.06626
11194.81  96.06997
11204.85  96.07363
11214.89  96.07724
11224.93  96.08079
